*FILE_COMMENT ""
*FILE_MD5 ""
*FILE_MEMO ""
*FILE_OPERATOR "ysh"
*FILE_PACKAGE_NAME ""
*FILE_PART_ID "GeneralMeasurement(BB)"
*FILE_SAMPLE ""
*FILE_SYSTEM_NAME "SmartLab"
*FILE_TYPE "RAS_RAW"
*FILE_USERGROUP "Operator1"
*FILE_VERSION "1"
*HW_ATTACHMENT_ID "ATT0025"
*HW_ATTACHMENT_NAME "Standard"
*HW_ATTACHMENT_NAME_INTERNAL "Standard"
*HW_COUNTER_ID-0 "CUT0054"
*HW_COUNTER_ID-2 "CMC0020"
*HW_COUNTER_MONOCHRO_ID "CMC0020"
*HW_COUNTER_MONOCHRO_NAME "None"
*HW_COUNTER_MONOCHRO_NAME_INTERNAL "None"
*HW_COUNTER_NAME_INTERNAL "HyPix400(V)"
*HW_COUNTER_NAME-0 "HyPix400(V)"
*HW_COUNTER_NAME-1 "None"
*HW_COUNTER_NAME-2 "None"
*HW_COUNTER_PIXEL_SIZE "0.1"
*HW_COUNTER_SELECT_NAME "HyPix400(V)"
*HW_EXTERNAL_CONTROLLER_NAME "None"
*HW_EXTERNAL_CONTROLLER_NAME_INTERNAL "None"
*HW_GONIOMETER_ID "GON0021"
*HW_GONIOMETER_NAME "Standard"
*HW_GONIOMETER_NAME_INTERNAL "Standard"
*HW_GONIOMETER_RADIUS-0 "90.0"
*HW_GONIOMETER_RADIUS-1 "114.0"
*HW_GONIOMETER_RADIUS-2 "190.0"
*HW_GONIOMETER_RADIUS-3 "300.0"
*HW_GONIOMETER_RADIUS-4 "187.0"
*HW_GONIOMETER_RADIUS-5 "300.0"
*HW_GONIOMETER_RADIUS-6 "113.0"
*HW_GONIOMETER_RADIUS-7 "331.0"
*HW_I_CBO_ID "CBO0023"
*HW_I_CBO_NAME "Open-BB"
*HW_I_CBO_NAME_INTERNAL "Open-BB"
*HW_I_MONOCHRO_ID "ISO0021"
*HW_I_MONOCHRO_NAME "IPS_adaptor"
*HW_I_MONOCHRO_NAME_INTERNAL "IPS_adaptor"
*HW_I_OPT_ID-1 "CBO0023"
*HW_I_OPT_ID-2 "ISL0021"
*HW_I_PRIMARY_NAME_INTERNAL "Manual"
*HW_I_SLIT_ID "ISL0021"
*HW_I_SLIT_NAME "Auto"
*HW_I_SLIT_NAME_INTERNAL "Auto"
*HW_R_ATTENUATER_AUTOMODE "0"
*HW_R_ATTENUATER_ID "ATN0020"
*HW_R_ATTENUATER_NAME "No_unit"
*HW_R_ATTENUATOR_NAME_INTERNAL "No_unit"
*HW_R_OPT_ID-1 "RCR0022"
*HW_R_OPT_ID-2 "RSO0021"
*HW_R_OPT_ID-3 "RRS0022"
*HW_R_OPT_ID-4 "ATN0020"
*HW_R_ROD_ID "RCR0022"
*HW_R_ROD_NAME "ROD_adaptor"
*HW_R_ROD_NAME_INTERNAL "ROD_adaptor"
*HW_R_RPS_ID "RSO0021"
*HW_R_RPS_NAME "RPS_adaptor"
*HW_R_RPS_NAME_INTERNAL "RPS_adaptor"
*HW_R_RS_ID "RRS0022"
*HW_R_RS_NAME "Virtual"
*HW_R_RS_NAME_INTERNAL "Virtual"
*HW_R_SS_NAME_INTERNAL "FilterBoxForHyPix"
*HW_ROBOT_NAME "No_unit"
*HW_ROBOT_NAME_INTERNAL "No_unit"
*HW_SAMPLE_CAMERA_NAME "None"
*HW_SAMPLE_CAMERA_NAME_INTERNAL "None"
*HW_SAMPLE_HOLDER_NAME_INTERNAL "Z_Standard"
*HW_SAMPLE_NAME "PowderSample"
*HW_SAMPLE_NAME_INTERNAL "PowderSample"
*HW_SAMPLE_PLATE_NAME "None"
*HW_SAMPLE_PLATE_NAME_INTERNAL "None"
*HW_SAMPLE_SPACER_NAME "None"
*HW_SAMPLE_SPACER_NAME_INTERNAL "None"
*HW_USERINFO_CATALOG_NO ""
*HW_USERINFO_INSTRUMENT_ID ""
*HW_USERINFO_INSTRUMENT_NAME ""
*HW_USERINFO_INSTRUMENT_NO ""
*HW_USERINFO_MODEL ""
*HW_USERINFO_ORDER_NO ""
*HW_USERINFO_SERIAL_NO ""
*HW_USERINFO_VERIFY_INSTRUMENT_ID "00-07-fe-01-2d-7e"
*HW_VER_RCD_COUNTER_UNIT "N/A"
*HW_VER_RCD_CPU "3.4.0"
*HW_VER_RCD_FPGA "1.2.3"
*HW_VER_RCD_GONIO_UNIT "7.0.0"
*HW_VER_RCD_INCIDENT_UNIT "7.0.0"
*HW_VER_RCD_RECEIVING_UNIT "7.0.0"
*HW_VER_RCD_TYPE "RINC"
*HW_VER_XGC_CPU "3.4.0"
*HW_VER_XGC_CW "4.0.0"
*HW_VER_XGC_HV "4.0.0"
*HW_VER_XGC_RS1 "4.0.0"
*HW_VER_XGC_RS2 "N/A"
*HW_VER_XGC_RT "N/A"
*HW_VER_XGC_TYPE "RINC"
*HW_XG_CURRENT_UNIT "mA"
*HW_XG_FOCUS "0.4mm x 12mm"
*HW_XG_FOCUS_TYPE "LongFineToshiba"
*HW_XG_TARGET_ATOMIC_NUMBER "29"
*HW_XG_TARGET_NAME "Cu"
*HW_XG_TYPE "Hermetic"
*HW_XG_VOLTAGE_UNIT "kV"
*HW_XG_WAVE_LENGTH_ALPHA1 "1.540593"
*HW_XG_WAVE_LENGTH_ALPHA2 "1.544414"
*HW_XG_WAVE_LENGTH_BETA "1.392246"
*HW_XG_WAVE_LENGTH_UNIT "Angstrom"
*MEAS_COND_AXIS_NAME_INTERNAL-0 "ThetaS"
*MEAS_COND_AXIS_NAME_INTERNAL-1 "ThetaD"
*MEAS_COND_AXIS_NAME_INTERNAL-10 "IncidentSlitBox"
*MEAS_COND_AXIS_NAME_INTERNAL-11 "IncidentSlitBox"
*MEAS_COND_AXIS_NAME_INTERNAL-12 "IncidentSlitBox"
*MEAS_COND_AXIS_NAME_INTERNAL-13 "Zs"
*MEAS_COND_AXIS_NAME_INTERNAL-14 "IncidentAxdSlit"
*MEAS_COND_AXIS_NAME_INTERNAL-15 "IncidentAxdSlit"
*MEAS_COND_AXIS_NAME_INTERNAL-16 "IncidentAxdSlit"
*MEAS_COND_AXIS_NAME_INTERNAL-17 "Z"
*MEAS_COND_AXIS_NAME_INTERNAL-18 "DirectBeamStop"
*MEAS_COND_AXIS_NAME_INTERNAL-19 "KnifeEdge"
*MEAS_COND_AXIS_NAME_INTERNAL-2 "TwoTheta"
*MEAS_COND_AXIS_NAME_INTERNAL-20 "Filter"
*MEAS_COND_AXIS_NAME_INTERNAL-21 "PSA"
*MEAS_COND_AXIS_NAME_INTERNAL-22 "ReceivingSollerSlit"
*MEAS_COND_AXIS_NAME_INTERNAL-23 "ReceivingSlitBox2"
*MEAS_COND_AXIS_NAME_INTERNAL-24 "ReceivingSlitBox2"
*MEAS_COND_AXIS_NAME_INTERNAL-25 "ReceivingSlitBox2"
*MEAS_COND_AXIS_NAME_INTERNAL-26 "ModuleSensorType"
*MEAS_COND_AXIS_NAME_INTERNAL-27 "GainMode"
*MEAS_COND_AXIS_NAME_INTERNAL-28 "PHA"
*MEAS_COND_AXIS_NAME_INTERNAL-29 "DetectorBeamStop"
*MEAS_COND_AXIS_NAME_INTERNAL-3 "Omega"
*MEAS_COND_AXIS_NAME_INTERNAL-30 "DetectorFilter"
*MEAS_COND_AXIS_NAME_INTERNAL-31 "DedicatedHolder"
*MEAS_COND_AXIS_NAME_INTERNAL-32 "Target_TargetTime"
*MEAS_COND_AXIS_NAME_INTERNAL-33 "Target_XrayOnTime"
*MEAS_COND_AXIS_NAME_INTERNAL-34 "Target_TMPTime"
*MEAS_COND_AXIS_NAME_INTERNAL-35 "Target_RPTime"
*MEAS_COND_AXIS_NAME_INTERNAL-36 "Target_FilamentTime"
*MEAS_COND_AXIS_NAME_INTERNAL-37 "Target_IG"
*MEAS_COND_AXIS_NAME_INTERNAL-38 "Target_GP"
*MEAS_COND_AXIS_NAME_INTERNAL-39 "Target_FC"
*MEAS_COND_AXIS_NAME_INTERNAL-4 "TwoThetaTheta"
*MEAS_COND_AXIS_NAME_INTERNAL-40 "HVPS_Bias"
*MEAS_COND_AXIS_NAME_INTERNAL-41 "HVPS_HVPSTime"
*MEAS_COND_AXIS_NAME_INTERNAL-42 "HVPS_Type1Time"
*MEAS_COND_AXIS_NAME_INTERNAL-43 "HVPS_Type2Time"
*MEAS_COND_AXIS_NAME_INTERNAL-44 "HVPS_Type3Time"
*MEAS_COND_AXIS_NAME_INTERNAL-45 "CW_IERTime"
*MEAS_COND_AXIS_NAME_INTERNAL-46 "CW_ECTime"
*MEAS_COND_AXIS_NAME_INTERNAL-47 "CW_Flow1"
*MEAS_COND_AXIS_NAME_INTERNAL-48 "CW_Temperature1"
*MEAS_COND_AXIS_NAME_INTERNAL-49 "CW_Pressure1"
*MEAS_COND_AXIS_NAME_INTERNAL-5 "TwoThetaOmega"
*MEAS_COND_AXIS_NAME_INTERNAL-50 "CW_PressureIn"
*MEAS_COND_AXIS_NAME_INTERNAL-51 "CW_PressureOut"
*MEAS_COND_AXIS_NAME_INTERNAL-52 "CW_Flow2"
*MEAS_COND_AXIS_NAME_INTERNAL-53 "CW_Temperature2"
*MEAS_COND_AXIS_NAME_INTERNAL-54 "CW_Pressure2"
*MEAS_COND_AXIS_NAME_INTERNAL-55 "RE_EnclosureTemp"
*MEAS_COND_AXIS_NAME_INTERNAL-56 "RE_EnclosureHummidity"
*MEAS_COND_AXIS_NAME_INTERNAL-57 "RE_CabinetTemp"
*MEAS_COND_AXIS_NAME_INTERNAL-58 "RE_RPTemp"
*MEAS_COND_AXIS_NAME_INTERNAL-59 "RE_ShutterAXrayOnTime"
*MEAS_COND_AXIS_NAME_INTERNAL-6 "OmegaTwoTheta"
*MEAS_COND_AXIS_NAME_INTERNAL-60 "RE_ShutterATimes"
*MEAS_COND_AXIS_NAME_INTERNAL-61 "RE_ShutterAOpenCloseTime"
*MEAS_COND_AXIS_NAME_INTERNAL-62 "RE_ShutterACloseOpenTime"
*MEAS_COND_AXIS_NAME_INTERNAL-63 "RE_ShutterBXrayOnTime"
*MEAS_COND_AXIS_NAME_INTERNAL-64 "RE_ShutterBTimes"
*MEAS_COND_AXIS_NAME_INTERNAL-65 "RE_ShutterBOpenCloseTime"
*MEAS_COND_AXIS_NAME_INTERNAL-66 "RE_ShutterBCloseOpenTime"
*MEAS_COND_AXIS_NAME_INTERNAL-67 "RE_XrayWarningRamp"
*MEAS_COND_AXIS_NAME_INTERNAL-68 "RE_ShutterAInstallation"
*MEAS_COND_AXIS_NAME_INTERNAL-69 "RE_ShutterARamp"
*MEAS_COND_AXIS_NAME_INTERNAL-7 "GonioDirectBeamStop"
*MEAS_COND_AXIS_NAME_INTERNAL-70 "RE_ShutterBInstallation"
*MEAS_COND_AXIS_NAME_INTERNAL-71 "RE_ShutterBRamp"
*MEAS_COND_AXIS_NAME_INTERNAL-72 "RE_ExtShutterCLS"
*MEAS_COND_AXIS_NAME_INTERNAL-73 "RE_ExtXrayOFF"
*MEAS_COND_AXIS_NAME_INTERNAL-74 "RE_ExtSafetyCircuit"
*MEAS_COND_AXIS_NAME_INTERNAL-75 "Version_CPU"
*MEAS_COND_AXIS_NAME_INTERNAL-76 "Version_RS1"
*MEAS_COND_AXIS_NAME_INTERNAL-77 "Version_RS2"
*MEAS_COND_AXIS_NAME_INTERNAL-78 "Version_HV"
*MEAS_COND_AXIS_NAME_INTERNAL-79 "Version_CW"
*MEAS_COND_AXIS_NAME_INTERNAL-8 "CBOType"
*MEAS_COND_AXIS_NAME_INTERNAL-80 "Version_RT"
*MEAS_COND_AXIS_NAME_INTERNAL-81 "IncidentPrimary"
*MEAS_COND_AXIS_NAME_INTERNAL-82 "IncidentMonochromator"
*MEAS_COND_AXIS_NAME_INTERNAL-83 "ReceivingOptics"
*MEAS_COND_AXIS_NAME_INTERNAL-84 "CounterMonochromatorKind"
*MEAS_COND_AXIS_NAME_INTERNAL-9 "IncidentSollerSlit"
*MEAS_COND_AXIS_NAME-0 "ThetaS"
*MEAS_COND_AXIS_NAME-1 "ThetaD"
*MEAS_COND_AXIS_NAME-10 "IncidentSlitBox"
*MEAS_COND_AXIS_NAME-11 "IncidentSlitBox-_Axis"
*MEAS_COND_AXIS_NAME-12 "SlitDS"
*MEAS_COND_AXIS_NAME-13 "Zs"
*MEAS_COND_AXIS_NAME-14 "IncidentAxdSlit"
*MEAS_COND_AXIS_NAME-15 "LLS"
*MEAS_COND_AXIS_NAME-16 "DHLSlit"
*MEAS_COND_AXIS_NAME-17 "Z"
*MEAS_COND_AXIS_NAME-18 "DirectBeamStop"
*MEAS_COND_AXIS_NAME-19 "KnifeEdge"
*MEAS_COND_AXIS_NAME-2 "TwoTheta"
*MEAS_COND_AXIS_NAME-20 "Filter"
*MEAS_COND_AXIS_NAME-21 "PSA"
*MEAS_COND_AXIS_NAME-22 "ReceivingSollerSlit"
*MEAS_COND_AXIS_NAME-23 "ReceivingSlitBox2"
*MEAS_COND_AXIS_NAME-24 "ReceivingSlitBox2-_Axis"
*MEAS_COND_AXIS_NAME-25 "SlitRS"
*MEAS_COND_AXIS_NAME-26 "ModuleSensorType"
*MEAS_COND_AXIS_NAME-27 "GainMode"
*MEAS_COND_AXIS_NAME-28 "PHA"
*MEAS_COND_AXIS_NAME-29 "DetectorBeamStop"
*MEAS_COND_AXIS_NAME-3 "Omega"
*MEAS_COND_AXIS_NAME-30 "DetectorFilter"
*MEAS_COND_AXIS_NAME-31 "DedicatedHolder"
*MEAS_COND_AXIS_NAME-32 "Target_TargetTime"
*MEAS_COND_AXIS_NAME-33 "Target_XrayOnTime"
*MEAS_COND_AXIS_NAME-34 "Target_TMPTime"
*MEAS_COND_AXIS_NAME-35 "Target_RPTime"
*MEAS_COND_AXIS_NAME-36 "Target_FilamentTime"
*MEAS_COND_AXIS_NAME-37 "Target_IG"
*MEAS_COND_AXIS_NAME-38 "Target_GP"
*MEAS_COND_AXIS_NAME-39 "Target_FC"
*MEAS_COND_AXIS_NAME-4 "TwoThetaTheta"
*MEAS_COND_AXIS_NAME-40 "HVPS_Bias"
*MEAS_COND_AXIS_NAME-41 "HVPS_HVPSTime"
*MEAS_COND_AXIS_NAME-42 "HVPS_Type1Time"
*MEAS_COND_AXIS_NAME-43 "HVPS_Type2Time"
*MEAS_COND_AXIS_NAME-44 "HVPS_Type3Time"
*MEAS_COND_AXIS_NAME-45 "CW_IERTime"
*MEAS_COND_AXIS_NAME-46 "CW_ECTime"
*MEAS_COND_AXIS_NAME-47 "CW_Flow1"
*MEAS_COND_AXIS_NAME-48 "CW_Temperature1"
*MEAS_COND_AXIS_NAME-49 "CW_Pressure1"
*MEAS_COND_AXIS_NAME-5 "TwoThetaOmega"
*MEAS_COND_AXIS_NAME-50 "CW_PressureIn"
*MEAS_COND_AXIS_NAME-51 "CW_PressureOut"
*MEAS_COND_AXIS_NAME-52 "CW_Flow2"
*MEAS_COND_AXIS_NAME-53 "CW_Temperature2"
*MEAS_COND_AXIS_NAME-54 "CW_Pressure2"
*MEAS_COND_AXIS_NAME-55 "RE_EnclosureTemp"
*MEAS_COND_AXIS_NAME-56 "RE_EnclosureHummidity"
*MEAS_COND_AXIS_NAME-57 "RE_CabinetTemp"
*MEAS_COND_AXIS_NAME-58 "RE_RPTemp"
*MEAS_COND_AXIS_NAME-59 "RE_ShutterAXrayOnTime"
*MEAS_COND_AXIS_NAME-6 "OmegaTwoTheta"
*MEAS_COND_AXIS_NAME-60 "RE_ShutterATimes"
*MEAS_COND_AXIS_NAME-61 "RE_ShutterAOpenCloseTime"
*MEAS_COND_AXIS_NAME-62 "RE_ShutterACloseOpenTime"
*MEAS_COND_AXIS_NAME-63 "RE_ShutterBXrayOnTime"
*MEAS_COND_AXIS_NAME-64 "RE_ShutterBTimes"
*MEAS_COND_AXIS_NAME-65 "RE_ShutterBOpenCloseTime"
*MEAS_COND_AXIS_NAME-66 "RE_ShutterBCloseOpenTime"
*MEAS_COND_AXIS_NAME-67 "RE_XrayWarningRamp"
*MEAS_COND_AXIS_NAME-68 "RE_ShutterAInstallation"
*MEAS_COND_AXIS_NAME-69 "RE_ShutterARamp"
*MEAS_COND_AXIS_NAME-7 "GonioDirectBeamStop"
*MEAS_COND_AXIS_NAME-70 "RE_ShutterBInstallation"
*MEAS_COND_AXIS_NAME-71 "RE_ShutterBRamp"
*MEAS_COND_AXIS_NAME-72 "RE_ExtShutterCLS"
*MEAS_COND_AXIS_NAME-73 "RE_ExtXrayOFF"
*MEAS_COND_AXIS_NAME-74 "RE_ExtSafetyCircuit"
*MEAS_COND_AXIS_NAME-75 "Version_CPU"
*MEAS_COND_AXIS_NAME-76 "Version_RS1"
*MEAS_COND_AXIS_NAME-77 "Version_RS2"
*MEAS_COND_AXIS_NAME-78 "Version_HV"
*MEAS_COND_AXIS_NAME-79 "Version_CW"
*MEAS_COND_AXIS_NAME-8 "CBOType"
*MEAS_COND_AXIS_NAME-80 "Version_RT"
*MEAS_COND_AXIS_NAME-81 "IncidentPrimary"
*MEAS_COND_AXIS_NAME-82 "IncidentMonochromator"
*MEAS_COND_AXIS_NAME-83 "ReceivingOptics"
*MEAS_COND_AXIS_NAME-84 "CounterMonochromatorKind"
*MEAS_COND_AXIS_NAME-9 "IncidentSollerSlit"
*MEAS_COND_AXIS_OFFSET-0 "0"
*MEAS_COND_AXIS_OFFSET-1 "0"
*MEAS_COND_AXIS_OFFSET-10 "0"
*MEAS_COND_AXIS_OFFSET-11 "0"
*MEAS_COND_AXIS_OFFSET-12 "0"
*MEAS_COND_AXIS_OFFSET-13 "0"
*MEAS_COND_AXIS_OFFSET-14 "0"
*MEAS_COND_AXIS_OFFSET-15 "0"
*MEAS_COND_AXIS_OFFSET-16 "0"
*MEAS_COND_AXIS_OFFSET-17 "0"
*MEAS_COND_AXIS_OFFSET-18 "0"
*MEAS_COND_AXIS_OFFSET-19 "0"
*MEAS_COND_AXIS_OFFSET-2 "0"
*MEAS_COND_AXIS_OFFSET-20 "0"
*MEAS_COND_AXIS_OFFSET-21 "0"
*MEAS_COND_AXIS_OFFSET-22 "0"
*MEAS_COND_AXIS_OFFSET-23 "0"
*MEAS_COND_AXIS_OFFSET-24 "0"
*MEAS_COND_AXIS_OFFSET-25 "0"
*MEAS_COND_AXIS_OFFSET-26 "0"
*MEAS_COND_AXIS_OFFSET-27 "0"
*MEAS_COND_AXIS_OFFSET-28 "0"
*MEAS_COND_AXIS_OFFSET-29 "0"
*MEAS_COND_AXIS_OFFSET-3 "0"
*MEAS_COND_AXIS_OFFSET-30 "0"
*MEAS_COND_AXIS_OFFSET-31 "0"
*MEAS_COND_AXIS_OFFSET-32 "0"
*MEAS_COND_AXIS_OFFSET-33 "0"
*MEAS_COND_AXIS_OFFSET-34 "0"
*MEAS_COND_AXIS_OFFSET-35 "0"
*MEAS_COND_AXIS_OFFSET-36 "0"
*MEAS_COND_AXIS_OFFSET-37 "0"
*MEAS_COND_AXIS_OFFSET-38 "0"
*MEAS_COND_AXIS_OFFSET-39 "0"
*MEAS_COND_AXIS_OFFSET-4 "0"
*MEAS_COND_AXIS_OFFSET-40 "0"
*MEAS_COND_AXIS_OFFSET-41 "0"
*MEAS_COND_AXIS_OFFSET-42 "0"
*MEAS_COND_AXIS_OFFSET-43 "0"
*MEAS_COND_AXIS_OFFSET-44 "0"
*MEAS_COND_AXIS_OFFSET-45 "0"
*MEAS_COND_AXIS_OFFSET-46 "0"
*MEAS_COND_AXIS_OFFSET-47 "0"
*MEAS_COND_AXIS_OFFSET-48 "0"
*MEAS_COND_AXIS_OFFSET-49 "0"
*MEAS_COND_AXIS_OFFSET-5 "0"
*MEAS_COND_AXIS_OFFSET-50 "0"
*MEAS_COND_AXIS_OFFSET-51 "0"
*MEAS_COND_AXIS_OFFSET-52 "0"
*MEAS_COND_AXIS_OFFSET-53 "0"
*MEAS_COND_AXIS_OFFSET-54 "0"
*MEAS_COND_AXIS_OFFSET-55 "0"
*MEAS_COND_AXIS_OFFSET-56 "0"
*MEAS_COND_AXIS_OFFSET-57 "0"
*MEAS_COND_AXIS_OFFSET-58 "0"
*MEAS_COND_AXIS_OFFSET-59 "0"
*MEAS_COND_AXIS_OFFSET-6 "0"
*MEAS_COND_AXIS_OFFSET-60 "0"
*MEAS_COND_AXIS_OFFSET-61 "0"
*MEAS_COND_AXIS_OFFSET-62 "0"
*MEAS_COND_AXIS_OFFSET-63 "0"
*MEAS_COND_AXIS_OFFSET-64 "0"
*MEAS_COND_AXIS_OFFSET-65 "0"
*MEAS_COND_AXIS_OFFSET-66 "0"
*MEAS_COND_AXIS_OFFSET-67 "0"
*MEAS_COND_AXIS_OFFSET-68 "0"
*MEAS_COND_AXIS_OFFSET-69 "0"
*MEAS_COND_AXIS_OFFSET-7 "0"
*MEAS_COND_AXIS_OFFSET-70 "0"
*MEAS_COND_AXIS_OFFSET-71 "0"
*MEAS_COND_AXIS_OFFSET-72 "0"
*MEAS_COND_AXIS_OFFSET-73 "0"
*MEAS_COND_AXIS_OFFSET-74 "0"
*MEAS_COND_AXIS_OFFSET-75 "0"
*MEAS_COND_AXIS_OFFSET-76 "0"
*MEAS_COND_AXIS_OFFSET-77 "0"
*MEAS_COND_AXIS_OFFSET-78 "0"
*MEAS_COND_AXIS_OFFSET-79 "0"
*MEAS_COND_AXIS_OFFSET-8 "0"
*MEAS_COND_AXIS_OFFSET-80 "0"
*MEAS_COND_AXIS_OFFSET-81 "0"
*MEAS_COND_AXIS_OFFSET-82 "0"
*MEAS_COND_AXIS_OFFSET-83 "0"
*MEAS_COND_AXIS_OFFSET-84 "0"
*MEAS_COND_AXIS_OFFSET-9 "0"
*MEAS_COND_AXIS_POSITION-0 "0.0000"
*MEAS_COND_AXIS_POSITION-1 "0.0000"
*MEAS_COND_AXIS_POSITION-10 "1/3deg"
*MEAS_COND_AXIS_POSITION-11 "1.105625"
*MEAS_COND_AXIS_POSITION-12 "1/3deg"
*MEAS_COND_AXIS_POSITION-13 "0.0000000"
*MEAS_COND_AXIS_POSITION-14 "10mm"
*MEAS_COND_AXIS_POSITION-15 "10mm"
*MEAS_COND_AXIS_POSITION-16 "10mm"
*MEAS_COND_AXIS_POSITION-17 "0.00000"
*MEAS_COND_AXIS_POSITION-18 "None"
*MEAS_COND_AXIS_POSITION-19 "None"
*MEAS_COND_AXIS_POSITION-2 "0.0000"
*MEAS_COND_AXIS_POSITION-20 "Cu_K-beta_1D"
*MEAS_COND_AXIS_POSITION-21 "PSA_open"
*MEAS_COND_AXIS_POSITION-22 "None"
*MEAS_COND_AXIS_POSITION-23 "20.100mm"
*MEAS_COND_AXIS_POSITION-24 "20.1"
*MEAS_COND_AXIS_POSITION-25 "20.100mm"
*MEAS_COND_AXIS_POSITION-26 "AC"
*MEAS_COND_AXIS_POSITION-27 "Mo-HiC"
*MEAS_COND_AXIS_POSITION-29 "None"
*MEAS_COND_AXIS_POSITION-3 "0.0000"
*MEAS_COND_AXIS_POSITION-30 "None"
*MEAS_COND_AXIS_POSITION-31 "None"
*MEAS_COND_AXIS_POSITION-4 "0.0000"
*MEAS_COND_AXIS_POSITION-5 "0.0000"
*MEAS_COND_AXIS_POSITION-6 "0.0000"
*MEAS_COND_AXIS_POSITION-7 "None"
*MEAS_COND_AXIS_POSITION-8 "Type1"
*MEAS_COND_AXIS_POSITION-81 "Manual"
*MEAS_COND_AXIS_POSITION-82 "IPS_adaptor"
*MEAS_COND_AXIS_POSITION-83 "PSA_open"
*MEAS_COND_AXIS_POSITION-84 "None"
*MEAS_COND_AXIS_POSITION-9 "Soller_slit_open"
*MEAS_COND_AXIS_RESOLUTION-0 "0.0001"
*MEAS_COND_AXIS_RESOLUTION-1 "0.0001"
*MEAS_COND_AXIS_RESOLUTION-10 "1/1600"
*MEAS_COND_AXIS_RESOLUTION-11 "1/1600"
*MEAS_COND_AXIS_RESOLUTION-12 "1/1600"
*MEAS_COND_AXIS_RESOLUTION-13 "0.0003125"
*MEAS_COND_AXIS_RESOLUTION-14 ""
*MEAS_COND_AXIS_RESOLUTION-15 ""
*MEAS_COND_AXIS_RESOLUTION-16 ""
*MEAS_COND_AXIS_RESOLUTION-17 "0.00002"
*MEAS_COND_AXIS_RESOLUTION-18 ""
*MEAS_COND_AXIS_RESOLUTION-19 ""
*MEAS_COND_AXIS_RESOLUTION-2 "0.0001"
*MEAS_COND_AXIS_RESOLUTION-20 ""
*MEAS_COND_AXIS_RESOLUTION-21 ""
*MEAS_COND_AXIS_RESOLUTION-22 ""
*MEAS_COND_AXIS_RESOLUTION-23 "0.1"
*MEAS_COND_AXIS_RESOLUTION-24 "0.1"
*MEAS_COND_AXIS_RESOLUTION-25 "0.1"
*MEAS_COND_AXIS_RESOLUTION-26 ""
*MEAS_COND_AXIS_RESOLUTION-27 ""
*MEAS_COND_AXIS_RESOLUTION-28 "1"
*MEAS_COND_AXIS_RESOLUTION-29 ""
*MEAS_COND_AXIS_RESOLUTION-3 "0.0001"
*MEAS_COND_AXIS_RESOLUTION-30 ""
*MEAS_COND_AXIS_RESOLUTION-31 ""
*MEAS_COND_AXIS_RESOLUTION-32 "0.01"
*MEAS_COND_AXIS_RESOLUTION-33 "0.010000"
*MEAS_COND_AXIS_RESOLUTION-34 "0.01"
*MEAS_COND_AXIS_RESOLUTION-35 "0.01"
*MEAS_COND_AXIS_RESOLUTION-36 "0.01"
*MEAS_COND_AXIS_RESOLUTION-37 "1"
*MEAS_COND_AXIS_RESOLUTION-38 "1"
*MEAS_COND_AXIS_RESOLUTION-39 "1"
*MEAS_COND_AXIS_RESOLUTION-4 "0.0002"
*MEAS_COND_AXIS_RESOLUTION-40 "1"
*MEAS_COND_AXIS_RESOLUTION-41 "0.01"
*MEAS_COND_AXIS_RESOLUTION-42 "0.01"
*MEAS_COND_AXIS_RESOLUTION-43 "0.01"
*MEAS_COND_AXIS_RESOLUTION-44 "0.01"
*MEAS_COND_AXIS_RESOLUTION-45 "0.010000"
*MEAS_COND_AXIS_RESOLUTION-46 "1"
*MEAS_COND_AXIS_RESOLUTION-47 "0.100000"
*MEAS_COND_AXIS_RESOLUTION-48 "1.000000"
*MEAS_COND_AXIS_RESOLUTION-49 "0.010000"
*MEAS_COND_AXIS_RESOLUTION-5 "0.0002"
*MEAS_COND_AXIS_RESOLUTION-50 "0.01"
*MEAS_COND_AXIS_RESOLUTION-51 "0.01"
*MEAS_COND_AXIS_RESOLUTION-52 "0.1"
*MEAS_COND_AXIS_RESOLUTION-53 "1"
*MEAS_COND_AXIS_RESOLUTION-54 "0.01"
*MEAS_COND_AXIS_RESOLUTION-55 "1.000000"
*MEAS_COND_AXIS_RESOLUTION-56 "1"
*MEAS_COND_AXIS_RESOLUTION-57 "1.000000"
*MEAS_COND_AXIS_RESOLUTION-58 "1"
*MEAS_COND_AXIS_RESOLUTION-59 "0.01"
*MEAS_COND_AXIS_RESOLUTION-6 "0.0001"
*MEAS_COND_AXIS_RESOLUTION-60 "1"
*MEAS_COND_AXIS_RESOLUTION-61 "1"
*MEAS_COND_AXIS_RESOLUTION-62 "1"
*MEAS_COND_AXIS_RESOLUTION-63 "0.01"
*MEAS_COND_AXIS_RESOLUTION-64 "1.000000"
*MEAS_COND_AXIS_RESOLUTION-65 "1.000000"
*MEAS_COND_AXIS_RESOLUTION-66 "1.000000"
*MEAS_COND_AXIS_RESOLUTION-67 "-"
*MEAS_COND_AXIS_RESOLUTION-68 "-"
*MEAS_COND_AXIS_RESOLUTION-69 "-"
*MEAS_COND_AXIS_RESOLUTION-7 ""
*MEAS_COND_AXIS_RESOLUTION-70 "1.000000"
*MEAS_COND_AXIS_RESOLUTION-71 "-"
*MEAS_COND_AXIS_RESOLUTION-72 "-"
*MEAS_COND_AXIS_RESOLUTION-73 "-"
*MEAS_COND_AXIS_RESOLUTION-74 "1.000000"
*MEAS_COND_AXIS_RESOLUTION-75 "1.000000"
*MEAS_COND_AXIS_RESOLUTION-76 "1.000000"
*MEAS_COND_AXIS_RESOLUTION-77 "1.000000"
*MEAS_COND_AXIS_RESOLUTION-78 "1.000000"
*MEAS_COND_AXIS_RESOLUTION-79 "1.000000"
*MEAS_COND_AXIS_RESOLUTION-8 ""
*MEAS_COND_AXIS_RESOLUTION-80 "1.000000"
*MEAS_COND_AXIS_RESOLUTION-9 ""
*MEAS_COND_AXIS_STATE-0 "Fixed"
*MEAS_COND_AXIS_STATE-1 "Fixed"
*MEAS_COND_AXIS_STATE-10 "Fixed"
*MEAS_COND_AXIS_STATE-11 "Fixed"
*MEAS_COND_AXIS_STATE-12 "Fixed"
*MEAS_COND_AXIS_STATE-13 "Fixed"
*MEAS_COND_AXIS_STATE-14 "Fixed"
*MEAS_COND_AXIS_STATE-15 "Fixed"
*MEAS_COND_AXIS_STATE-16 "Fixed"
*MEAS_COND_AXIS_STATE-17 "Fixed"
*MEAS_COND_AXIS_STATE-18 "Fixed"
*MEAS_COND_AXIS_STATE-19 "Fixed"
*MEAS_COND_AXIS_STATE-2 "Fixed"
*MEAS_COND_AXIS_STATE-20 "Fixed"
*MEAS_COND_AXIS_STATE-21 "Fixed"
*MEAS_COND_AXIS_STATE-22 "Fixed"
*MEAS_COND_AXIS_STATE-23 "Fixed"
*MEAS_COND_AXIS_STATE-24 "Fixed"
*MEAS_COND_AXIS_STATE-25 "Fixed"
*MEAS_COND_AXIS_STATE-26 "Fixed"
*MEAS_COND_AXIS_STATE-27 "Fixed"
*MEAS_COND_AXIS_STATE-28 "Fixed"
*MEAS_COND_AXIS_STATE-29 "Fixed"
*MEAS_COND_AXIS_STATE-3 "Fixed"
*MEAS_COND_AXIS_STATE-30 "Fixed"
*MEAS_COND_AXIS_STATE-31 "Fixed"
*MEAS_COND_AXIS_STATE-32 "Fixed"
*MEAS_COND_AXIS_STATE-33 "Fixed"
*MEAS_COND_AXIS_STATE-34 "Fixed"
*MEAS_COND_AXIS_STATE-35 "Fixed"
*MEAS_COND_AXIS_STATE-36 "Fixed"
*MEAS_COND_AXIS_STATE-37 "Fixed"
*MEAS_COND_AXIS_STATE-38 "Fixed"
*MEAS_COND_AXIS_STATE-39 "Fixed"
*MEAS_COND_AXIS_STATE-4 "Scan"
*MEAS_COND_AXIS_STATE-40 "Fixed"
*MEAS_COND_AXIS_STATE-41 "Fixed"
*MEAS_COND_AXIS_STATE-42 "Fixed"
*MEAS_COND_AXIS_STATE-43 "Fixed"
*MEAS_COND_AXIS_STATE-44 "Fixed"
*MEAS_COND_AXIS_STATE-45 "Fixed"
*MEAS_COND_AXIS_STATE-46 "Fixed"
*MEAS_COND_AXIS_STATE-47 "Fixed"
*MEAS_COND_AXIS_STATE-48 "Fixed"
*MEAS_COND_AXIS_STATE-49 "Fixed"
*MEAS_COND_AXIS_STATE-5 "Fixed"
*MEAS_COND_AXIS_STATE-50 "Fixed"
*MEAS_COND_AXIS_STATE-51 "Fixed"
*MEAS_COND_AXIS_STATE-52 "Fixed"
*MEAS_COND_AXIS_STATE-53 "Fixed"
*MEAS_COND_AXIS_STATE-54 "Fixed"
*MEAS_COND_AXIS_STATE-55 "Fixed"
*MEAS_COND_AXIS_STATE-56 "Fixed"
*MEAS_COND_AXIS_STATE-57 "Fixed"
*MEAS_COND_AXIS_STATE-58 "Fixed"
*MEAS_COND_AXIS_STATE-59 "Fixed"
*MEAS_COND_AXIS_STATE-6 "Fixed"
*MEAS_COND_AXIS_STATE-60 "Fixed"
*MEAS_COND_AXIS_STATE-61 "Fixed"
*MEAS_COND_AXIS_STATE-62 "Fixed"
*MEAS_COND_AXIS_STATE-63 "Fixed"
*MEAS_COND_AXIS_STATE-64 "Fixed"
*MEAS_COND_AXIS_STATE-65 "Fixed"
*MEAS_COND_AXIS_STATE-66 "Fixed"
*MEAS_COND_AXIS_STATE-67 "Fixed"
*MEAS_COND_AXIS_STATE-68 "Fixed"
*MEAS_COND_AXIS_STATE-69 "Fixed"
